Sample	 Source	 Position	 Absorbance	 Fraction.Number
332598	74631	0	0.808987	0
263664	74638	0.04	1.284406	-100
58449	74604	0.07	4.36598	-100
62170	74638	0.11	4.24063	-100
59864	74606	0.15	4.31709	-100
58248	74608	0.19	4.373138	-100
57202	74639	0.23	4.411065	-100
56341	74648	0.27	4.442344	-100
54791	74636	0.3	4.499094	-100
53793	74627	0.35	4.53646	-100
52934	74605	0.39	4.568794	-100
53147	74620	0.42	4.560989	-100
52463	74593	0.46	4.586753	-100
52521	74573	0.5	4.583943	-100
52501	74589	0.54	4.585161	-100
52578	74613	0.58	4.582821	-100
52425	74548	0.62	4.587001	-100
52332	74571	0.66	4.591265	-100
52413	74604	0.7	4.589005	-100
52230	74635	0.74	4.597012	-100
52102	74663	0.78	4.6028	-100
51893	74646	0.82	4.610558	-100
51827	74695	0.86	4.614505	-100
51812	74686	0.89	4.614851	-100
51518	74626	0.93	4.62485	-100
51294	74610	0.97	4.633327	-100
51281	74754	1.01	4.637791	-100
51255	74766	1.05	4.639157	-100
51074	74755	1.09	4.646094	-100
50850	74616	1.13	4.651279	-100
50678	74634	1.17	4.658706	-100
50565	74623	1.21	4.662972	-100
50464	74620	1.25	4.66698	-100
50240	74624	1.29	4.676192	-100
50057	74640	1.33	4.684098	-100
49807	74641	1.37	4.69437	-100
49556	74648	1.4	4.704899	-100
49150	74639	1.44	4.721484	-100
48838	74636	1.48	4.734432	-100
48477	74613	1.52	4.748982	-100
48153	74648	1.56	4.763663	-100
47931	74671	1.6	4.773748	-100
47628	74629	1.64	4.785573	-100
47409	74680	1.68	4.796401	-100
47082	74621	1.72	4.808945	-100
46796	74629	1.76	4.821632	-100
46494	74628	1.79	4.834852	-100
46262	74619	1.84	4.84484	-100
45994	74616	1.87	4.856646	-100
45808	74624	1.91	4.865156	-100
45621	74631	1.95	4.873718	-100
45455	74624	1.99	4.880985	-100
45280	74610	2.03	4.888494	-100
45138	74643	2.07	4.895825	-100
45002	74658	2.11	4.902411	-100
44978	74685	2.15	4.904242	-100
44890	74654	2.18	4.9074	-100
44841	74631	2.22	4.909004	-100
44877	74636	2.27	4.907499	-100
44909	74641	2.31	4.906177	-100
44896	74622	2.34	4.906249	-100
44981	74644	2.38	4.902982	-100
45028	74614	2.42	4.900022	-100
45139	74646	2.46	4.895862	-100
45379	74659	2.5	4.885368	-100
45573	74636	2.54	4.876009	-100
45699	74623	2.58	4.870003	-100
45883	74651	2.62	4.862549	-100
46185	74653	2.66	4.849181	-100
46483	74639	2.7	4.835637	-100
46798	74632	2.74	4.821626	-100
47138	74645	2.77	4.807171	-100
47509	74626	2.81	4.790609	-100
47955	74639	2.85	4.771847	-100
48386	74623	2.89	4.753101	-100
48838	74626	2.93	4.734158	-100
49312	74622	2.97	4.714285	-100
49785	74644	3.01	4.695356	-100
50336	74615	3.05	4.67204	-100
50930	74625	3.09	4.64831	-100
51581	74660	3.13	4.623281	-100
52188	74723	3.17	4.601069	-100
52789	74732	3.21	4.577887	-100
53484	74761	3.25	4.551918	-100
54191	74723	3.28	4.524008	-100
54820	74731	3.32	4.500614	-100
55624	74723	3.36	4.470605	-100
56325	74698	3.4	4.444295	-100
57137	74691	3.44	4.414817	-100
57976	74702	3.48	4.385291	-100
58867	74721	3.52	4.354605	-100
59813	74706	3.56	4.321575	-100
60846	74726	3.6	4.287087	-100
61930	74761	3.63	4.251913	-100
62938	74718	3.68	4.217701	-100
63974	74701	3.71	4.183829	-100
65067	74705	3.75	4.149276	-100
66074	74716	3.79	4.118154	-100
67204	74699	3.83	4.082991	-100
68524	74713	3.87	4.043575	-100
69814	74727	3.91	4.005798	-100
71084	74759	3.95	3.969787	-100
72393	74731	3.99	3.931685	-100
73824	74757	4.03	3.892345	-100
75351	74764	4.07	3.850646	-100
76705	74741	4.11	3.813576	-100
78169	74750	4.14	3.775138	-100
79590	74727	4.18	3.737647	-100
81010	74706	4.22	3.700888	-100
82702	74717	4.26	3.658894	-100
84481	74708	4.3	3.615101	-100
86354	74718	4.34	3.570506	-100
88146	74750	4.38	3.529357	-100
89678	74746	4.42	3.493991	-100
91316	74736	4.46	3.456681	-100
92857	74734	4.5	3.422386	-100
94449	74707	4.53	3.386864	-100
96419	74740	4.58	3.345529	-100
98285	74719	4.62	3.305734	-100
100006	74723	4.66	3.270326	-100
101621	74729	4.69	3.237711	-100
103068	74695	4.73	3.207851	-100
105220	74718	4.77	3.166199	-100
107364	74784	4.81	3.126732	-100
109099	74785	4.85	3.093959	-100
110904	74733	4.89	3.058961	-100
112918	74743	4.93	3.022411	-100
115343	74743	4.97	2.978934	-100
117663	74760	5.01	2.938653	-100
119560	74747	5.05	2.905572	-100
121706	74738	5.09	2.868925	-100
124150	74724	5.12	2.827861	-100
127004	74745	5.16	2.781932	-100
129475	74711	5.2	2.741574	-100
131573	74725	5.24	2.709068	-100
133769	74700	5.28	2.674515	-100
136494	74690	5.32	2.632979	-100
139340	74686	5.36	2.590645	-100
142117	74746	5.4	2.551911	-100
144179	74730	5.44	2.521999	-100
146767	74711	5.47	2.485077	-100
149789	74712	5.51	2.443402	-100
152440	74702	5.56	2.407232	-100
154767	74714	5.59	2.376563	-100
156918	74697	5.63	2.347855	-100
159778	74715	5.67	2.311392	-100
162555	74751	5.71	2.277121	-100
165106	74730	5.75	2.244685	-100
167572	74746	5.79	2.214789	-100
169990	74726	5.83	2.184928	-100
173407	74704	5.87	2.143604	-100
176478	74710	5.91	2.107849	-100
180301	74732	5.95	2.064601	-100
183167	74778	5.99	2.033591	-100
185595	74722	6.03	2.005114	-100
188722	74721	6.06	1.9709	-100
192337	74732	6.1	1.932378	-100
196058	74730	6.14	1.893117	-100
198806	74741	6.18	1.864938	-100
201473	74766	6.22	1.838356	-100
204377	74731	6.26	1.808117	-100
207397	74734	6.3	1.778185	-100
210593	74741	6.34	1.747087	-100
213280	74712	6.38	1.720351	-100
215826	74727	6.42	1.696481	-100
219189	74715	6.46	1.664516	-100
222042	74703	6.5	1.637727	-100
225043	74728	6.53	1.610943	1
227437	74737	6.57	1.589538	-100
229852	74758	6.61	1.568501	-100
232613	74789	6.65	1.544917	-100
235363	74751	6.69	1.51983	-100
238068	74761	6.73	1.496722	-100
240776	74789	6.77	1.474345	-100
243059	74734	6.81	1.453531	-100
246055	74749	6.85	1.428875	-100
249725	74718	6.89	1.397733	-100
252788	74715	6.92	1.372707	-100
255388	74691	6.96	1.351112	-100
257866	74724	7.01	1.332258	-100
260566	74730	7.04	1.31111	-100
263714	74743	7.08	1.286894	-100
266725	74733	7.12	1.263391	-100
268482	74726	7.16	1.249765	-100
270652	74710	7.2	1.232856	-100
273285	74720	7.24	1.213321	-100
275452	74742	7.28	1.197763	-100
278462	74782	7.32	1.17662	-100
279973	74740	7.36	1.164398	-100
282180	74742	7.39	1.148386	-100
285051	74767	7.43	1.128358	-100
287278	74753	7.47	1.112051	-100
289468	74735	7.51	1.09602	-100
291147	74745	7.55	1.08446	-100
293051	74737	7.59	1.070903	-100
295463	74725	7.63	1.053803	-100
297381	74708	7.67	1.040098	-100
298852	74709	7.71	1.030029	-100
300451	74720	7.75	1.019412	-100
303238	74741	7.79	1.001095	-100
305655	74747	7.83	0.985015	-100
307632	74757	7.87	0.972097	-100
308967	74722	7.91	0.962279	-100
311077	74721	7.95	0.948325	-100
314623	74783	7.98	0.92683	-100
316942	74737	8.02	0.910546	-100
318843	74713	8.07	0.897653	-100
321924	74721	8.11	0.878195	-100
324750	74704	8.15	0.859846	-100
328144	74726	8.19	0.839175	-100
329960	74765	8.23	0.828951	-100
331119	74734	8.27	0.820928	-100
333201	74751	8.31	0.808568	-100
335330	74707	8.35	0.794331	-100
338492	74729	8.39	0.77573	-100
339870	74731	8.42	0.767472	-100
341365	74759	8.47	0.759258	-100
344120	74752	8.5	0.742619	-100
346195	74737	8.54	0.729908	-100
348155	74747	8.58	0.71863	-100
349481	74769	8.62	0.711454	-100
351453	74763	8.66	0.699777	-100
353777	74709	8.7	0.684813	-100
355564	74722	8.74	0.67486	-100
358217	74758	8.78	0.660635	-100
360474	74798	8.82	0.648879	-100
361947	74757	8.86	0.639413	-100
364700	74771	8.89	0.624292	-100
367171	74744	8.93	0.609736	-100
369732	74744	8.97	0.595514	-100
371702	74751	9.01	0.584833	-100
372806	74765	9.05	0.579148	-100
374582	74750	9.09	0.569013	-100
376892	74754	9.13	0.556543	-100
378777	74729	9.17	0.545651	-100
380420	74687	9.21	0.535644	-100
381540	74708	9.25	0.530205	-100
383648	74748	9.29	0.520026	-100
386022	74769	9.33	0.507979	-100
387868	74794	9.36	0.498901	-100
388772	74768	9.4	0.493427	-100
390226	74798	9.44	0.486609	-100
391348	74762	9.48	0.47975	-100
392886	74763	9.52	0.471752	-100
393758	74740	9.56	0.466586	-100
394467	74715	9.6	0.46222	-100
395962	74721	9.64	0.454645	-100
397419	74710	9.68	0.446828	-100
399693	74759	9.72	0.436496	-100
401273	74743	9.76	0.427985	-100
402329	74745	9.8	0.422662	-100
403674	74742	9.84	0.415751	-100
405291	74731	9.88	0.407271	-100
407147	74750	9.91	0.398442	-100
408692	74737	9.95	0.390337	-100
409096	74743	9.99	0.388479	-100
409730	74714	10.03	0.384517	-100
411096	74718	10.07	0.377816	-100
410851	74698	10.11	0.378488	-100
413132	74788	10.15	0.369623	-100
411952	74738	10.19	0.374108	-100
412956	74752	10.23	0.36951	-100
414174	74720	10.27	0.362608	-100
415491	74742	10.3	0.356714	-100
416410	74720	10.34	0.351591	-100
416944	74718	10.38	0.348914	-100
417635	74702	10.42	0.345088	-100
418810	74689	10.46	0.338983	-100
419469	74690	10.5	0.335794	-100
419577	74690	10.54	0.335267	-100
421286	74719	10.58	0.327744	-100
422762	74743	10.62	0.321245	-100
423549	74720	10.66	0.31681	-100
424843	74768	10.7	0.311882	-100
425354	74726	10.74	0.308273	-100
426414	74700	10.78	0.302468	-100
427823	74695	10.81	0.295582	-100
428822	74730	10.85	0.291768	-100
429427	74755	10.89	0.289567	-100
430237	74719	10.93	0.284726	-100
431660	74704	10.97	0.277559	-100
432482	74716	11.01	0.273995	-100
432785	74742	11.05	0.273274	-100
433265	74686	11.09	0.269472	-100
434225	74728	11.13	0.266094	-100
435611	74740	11.17	0.259902	-100
436339	74723	11.2	0.25602	-100
436881	74733	11.25	0.253754	-100
437284	74718	11.28	0.251456	-100
438519	74721	11.32	0.245768	-100
439337	74704	11.36	0.241489	-100
439788	74690	11.4	0.239006	-100
440052	74699	11.44	0.238025	-100
440560	74674	11.48	0.234979	-100
441553	74698	11.52	0.23103	-100
442182	74694	11.56	0.228008	-100
443280	74718	11.6	0.223591	-100
444090	74727	11.64	0.220102	-100
444496	74718	11.68	0.217986	-100
445004	74738	11.71	0.216196	-100
445572	74707	11.75	0.212737	-100
446566	74691	11.79	0.20774	-100
447339	74711	11.83	0.204749	-100
447568	74735	11.87	0.204359	-100
448021	74720	11.91	0.201878	-100
448912	74744	11.95	0.19847	-100
449564	74740	11.99	0.195391	-100
449937	74729	12.03	0.193393	-100
449263	74717	12.07	0.196132	-100
449639	74716	12.11	0.194393	-100
450528	74696	12.14	0.189803	-100
451296	74706	12.18	0.186592	-100
450719	74670	12.22	0.188224	-100
451174	74687	12.26	0.186625	-100
452101	74771	12.3	0.184725	-100
451811	74714	12.34	0.184478	-100
451889	74695	12.38	0.183604	-100
451673	74699	12.42	0.184692	-100
451324	74684	12.46	0.185863	-100
452046	74713	12.5	0.183386	-100
452407	74704	12.54	0.181507	-100
452429	74727	12.57	0.182037	-100
452148	74714	12.61	0.182952	-100
451965	74744	12.65	0.184602	-100
451594	74711	12.7	0.185379	-100
451708	74721	12.73	0.185136	-100
451406	74710	12.77	0.186203	-100
450722	74696	12.81	0.188922	-100
450286	74716	12.85	0.19145	-100
450092	74696	12.89	0.191784	-100
450211	74726	12.93	0.192065	-100
449295	74700	12.97	0.19552	-100
448695	74706	13.01	0.198419	-100
447607	74682	13.05	0.202729	-100
447822	74680	13.08	0.201692	2
447930	74729	13.12	0.20254	-100
446654	74706	13.16	0.207747	-100
446347	74713	13.2	0.209346	-100
445976	74713	13.24	0.211047	-100
445423	74713	13.28	0.213586	-100
445389	74731	13.32	0.214235	-100
444368	74730	13.36	0.218904	-100
443533	74726	13.4	0.222642	-100
443600	74721	13.44	0.222196	-100
443396	74710	13.47	0.222836	-100
443092	74704	13.51	0.224075	-100
442263	74723	13.55	0.228427	-100
441779	74731	13.59	0.230887	-100
441641	74717	13.63	0.231143	-100
441307	74689	13.67	0.231924	-100
440672	74731	13.71	0.23602	-100
439850	74734	13.75	0.239923	-100
440041	74725	13.79	0.238788	-100
440545	74757	13.83	0.237322	-100
439883	74743	13.87	0.240016	-100
439304	74741	13.91	0.242656	-100
438880	74727	13.95	0.244248	-100
438861	74759	13.98	0.245213	-100
438857	74716	14.02	0.244054	-100
438704	74728	14.06	0.245097	-100
438108	74691	14.11	0.246865	-100
438247	74703	14.14	0.246544	-100
438789	74744	14.18	0.245138	-100
438388	74689	14.22	0.245503	-100
438593	74751	14.26	0.246244	-100
438316	74739	14.3	0.247208	-100
438325	74742	14.34	0.247248	-100
438501	74728	14.38	0.246044	-100
438796	74745	14.42	0.245133	-100
438682	74717	14.46	0.244898	-100
439197	74746	14.5	0.243291	-100
438962	74729	14.54	0.243921	-100
439169	74722	14.57	0.242765	-100
439613	74781	14.62	0.242312	-100
439513	74744	14.66	0.241765	-100
439561	74720	14.7	0.240884	-100
439840	74744	14.74	0.240243	-100
440657	74763	14.78	0.236966	-100
440767	74741	14.82	0.235853	-100
440689	74734	14.86	0.236024	-100
440922	74751	14.9	0.235408	-100
440874	74711	14.93	0.234535	-100
441551	74708	14.98	0.231313	-100
442370	74737	15.02	0.228316	-100
442484	74701	15.06	0.226803	-100
443014	74714	15.09	0.224709	-100
443706	74709	15.13	0.221379	-100
444420	74747	15.17	0.21913	-100
444647	74719	15.21	0.217318	-100
444817	74737	15.25	0.217029	-100
445126	74722	15.29	0.215197	-100
445308	74690	15.33	0.213484	-100
445949	74702	15.37	0.21087	-100
446552	74688	15.41	0.207722	-100
447495	74718	15.45	0.204227	-100
447659	74719	15.49	0.203505	-100
447920	74711	15.52	0.202093	-100
448317	74670	15.56	0.199157	-100
449214	74689	15.6	0.195588	-100
449469	74702	15.64	0.194783	-100
449657	74682	15.68	0.193379	-100
450356	74673	15.72	0.189954	-100
451257	74705	15.76	0.186742	-100
452054	74726	15.8	0.183706	-100
452248	74714	15.84	0.1825	-100
452641	74739	15.88	0.181407	-100
452978	74706	15.92	0.17898	-100
453855	74718	15.96	0.175351	-100
454495	74718	15.99	0.172468	-100
454954	74707	16.03	0.170102	-100
455493	74687	16.07	0.167131	-100
456092	74724	16.11	0.165456	-100
456958	74741	16.15	0.16204	-100
457987	74753	16.19	0.157766	-100
457865	74746	16.23	0.158119	-100
458089	74710	16.27	0.156133	-100
458977	74728	16.31	0.152663	-100
459766	74716	16.35	0.14882	-100
459856	74693	16.39	0.14779	-100
460502	74704	16.42	0.145219	-100
461010	74707	16.46	0.143045	-100
461333	74691	16.5	0.141174	-100
462112	74705	16.54	0.138105	-100
462309	74696	16.58	0.136987	-100
462741	74718	16.62	0.135678	-100
463419	74726	16.66	0.132901	-100
463851	74709	16.7	0.130529	-100
464371	74686	16.74	0.127607	-100
464460	74689	16.78	0.127297	-100
465096	74738	16.82	0.125839	-100
465541	74735	16.86	0.1238	-100
466095	74718	16.9	0.120901	-100
466741	74763	16.94	0.119299	-100
466478	74714	16.97	0.119111	-100
466914	74702	17.01	0.116871	-100
467839	74714	17.05	0.11315	-100
467941	74670	17.09	0.111498	-100
468103	74677	17.13	0.110982	-100
468450	74697	17.17	0.110014	-100
469303	74748	17.21	0.107688	-100
469731	74750	17.25	0.105877	-100
469829	74738	17.29	0.105122	-100
470024	74731	17.33	0.104081	-100
470469	74751	17.37	0.102693	-100
470719	74736	17.41	0.101195	-100
470883	74712	17.45	0.099825	-100
471261	74734	17.48	0.098786	-100
471195	74715	17.52	0.098552	-100
471453	74726	17.56	0.097733	-100
471713	74772	17.6	0.097864	-100
472406	74765	17.64	0.094669	-100
472473	74736	17.68	0.093585	-100
472439	74735	17.72	0.093705	-100
472537	74740	17.76	0.093417	-100
472667	74734	17.8	0.09269	-100
473135	74738	17.84	0.090775	-100
473320	74735	17.88	0.089893	-100
473397	74748	17.91	0.089916	-100
473736	74740	17.95	0.088232	-100
474003	74747	17.99	0.087271	-100
474130	74785	18.03	0.087763	-100
474228	74752	18.07	0.086437	-100
474221	74752	18.11	0.086467	-100
474507	74767	18.15	0.085644	-100
474460	74751	18.19	0.085409	-100
474732	74754	18.23	0.084318	-100
474871	74758	18.27	0.083829	-100
475008	74752	18.31	0.083074	-100
474692	74738	18.34	0.084053	-100
475026	74762	18.38	0.08327	-100
474851	74716	18.42	0.082765	-100
475451	74743	18.46	0.08092	-100
475239	74759	18.5	0.082271	-100
475122	74753	18.54	0.082611	-100
475257	74744	18.58	0.081783	-100
475180	74748	18.62	0.082224	-100
475046	74786	18.66	0.083841	-100
474182	74724	18.7	0.085869	-100
473891	74721	18.74	0.087043	-100
474096	74752	18.78	0.087006	-100
473731	74722	18.82	0.087761	-100
473619	74742	18.85	0.088792	-100
473387	74775	18.89	0.090698	-100
472984	74762	18.93	0.092085	-100
472592	74767	18.97	0.093918	-100
472319	74758	19.01	0.094854	-100
471778	74773	19.05	0.09761	-100
470708	74738	19.09	0.101298	-100
470281	74781	19.13	0.104331	-100
469672	74792	19.17	0.107284	-100
468925	74800	19.21	0.110759	-100
467762	74787	19.25	0.115485	-100
466559	74747	19.29	0.119659	-100
465579	74741	19.33	0.123797	-100
464936	74778	19.36	0.127638	-100
463762	74760	19.4	0.132318	-100
462125	74763	19.44	0.139635	-100
460854	74771	19.48	0.14549	-100
459809	74771	19.52	0.150135	-100
458884	74770	19.56	0.154228	-100
457547	74760	19.6	0.159924	3
456012	74764	19.64	0.166909	-100
454572	74736	19.68	0.172614	-100
453381	74741	19.72	0.178119	-100
452415	74778	19.76	0.183496	-100
451208	74774	19.79	0.188853	-100
449599	74767	19.83	0.195971	-100
448578	74744	19.87	0.199993	-100
447740	74742	19.91	0.203764	-100
446513	74741	19.95	0.209352	-100
445271	74765	19.99	0.215708	-100
444646	74786	20.03	0.219157	-100
443686	74779	20.07	0.223387	-100
442733	74764	20.11	0.227377	-100
441955	74791	20.15	0.231714	-100
441308	74789	20.19	0.234657	-100
440263	74750	20.23	0.238441	-100
439695	74807	20.27	0.242642	-100
438492	74771	20.3	0.247263	-100
438204	74757	20.34	0.248224	-100
437580	74757	20.38	0.251139	-100
437067	74756	20.42	0.253512	-100
436464	74771	20.46	0.256748	-100
436299	74769	20.5	0.257467	-100
436123	74782	20.54	0.258648	-100
435588	74784	20.58	0.261214	-100
435237	74778	20.62	0.262699	-100
434897	74766	20.66	0.26397	-100
434808	74774	20.7	0.264608	-100
434725	74751	20.74	0.264369	-100
434692	74774	20.77	0.265154	-100
434820	74771	20.81	0.264469	-100
434638	74753	20.85	0.264833	-100
434681	74767	20.89	0.265014	-100
434901	74775	20.93	0.264197	-100
434885	74765	20.97	0.263999	-100
435039	74773	21.01	0.263494	-100
435149	74757	21.05	0.262538	-100
435443	74767	21.09	0.26143	-100
435741	74790	21.13	0.26066	-100
436038	74778	21.17	0.258937	-100
436128	74750	21.21	0.257749	-100
436591	74757	21.25	0.255769	-100
436931	74766	21.29	0.254423	-100
437073	74741	21.33	0.253074	-100
437471	74748	21.37	0.251403	-100
437871	74752	21.41	0.249642	-100
438553	74741	21.45	0.246157	-100
439200	74758	21.49	0.243606	-100
439311	74729	21.53	0.242295	-100
440015	74750	21.56	0.239593	-100
440503	74744	21.6	0.237161	-100
441363	74748	21.64	0.23328	-100
441714	74716	21.68	0.230777	-100
442388	74747	21.72	0.228506	-100
442760	74785	21.76	0.227826	-100
443675	74749	21.8	0.222617	-100
444099	74743	21.84	0.220498	-100
444781	74772	21.88	0.218152	-100
445550	74775	21.92	0.2147	-100
446029	74757	21.96	0.212009	-100
446882	74769	22	0.208428	-100
447453	74779	22.04	0.206089	-100
447852	74757	22.07	0.203663	-100
448413	74734	22.11	0.200472	-100
449385	74774	22.15	0.197136	-100
449966	74745	22.19	0.193699	-100
450677	74759	22.23	0.190852	-100
451273	74776	22.27	0.188613	-100
452007	74788	22.31	0.185616	-100
452753	74776	22.35	0.181913	-100
453361	74786	22.39	0.179441	-100
453844	74760	22.43	0.176551	-100
454447	74754	22.47	0.17367	-100
455024	74753	22.51	0.171046	-100
456201	74791	22.55	0.1668	-100
456412	74780	22.58	0.165553	-100
456896	74753	22.62	0.162646	-100
457737	74755	22.66	0.158938	-100
457957	74720	22.7	0.156996	-100
458773	74725	22.74	0.153491	-100
459595	74763	22.78	0.150868	-100
459983	74760	22.82	0.149059	-100
460865	74788	22.86	0.145906	-100
461337	74767	22.9	0.143237	-100
462087	74764	22.94	0.139831	-100
462385	74767	22.98	0.138594	-100
462711	74775	23.02	0.137371	-100
463247	74766	23.05	0.134756	-100
463803	74755	23.09	0.132	-100
464420	74762	23.13	0.129472	-100
464820	74762	23.17	0.12771	-100
465135	74761	23.21	0.126297	-100
465574	74790	23.25	0.12516	-100
465800	74771	23.29	0.123647	-100
466145	74742	23.33	0.121339	-100
466627	74748	23.37	0.119388	-100
466832	74726	23.41	0.117887	-100
466908	74735	23.45	0.117801	-100
467281	74745	23.49	0.11644	-100
467671	74789	23.52	0.115938	-100
467480	74797	23.56	0.116992	-100
467497	74776	23.6	0.116343	-100
466683	74753	23.64	0.11928	-100
466720	74774	23.68	0.119692	-100
466038	74770	23.72	0.122575	-100
464987	74765	23.76	0.127057	-100
463550	74731	23.8	0.13246	-100
461690	74727	23.84	0.140577	-100
459500	74738	23.88	0.150607	-100
456795	74760	23.92	0.16329	-100
453257	74744	23.95	0.178761	-100
449592	74773	23.99	0.196167	-100
444488	74756	24.03	0.219063	-100
438814	74752	24.07	0.245241	-100
432510	74778	24.11	0.27556	-100
425582	74786	24.15	0.308819	-100
417575	74766	24.19	0.347134	-100
408569	74745	24.23	0.391171	-100
398387	74757	24.27	0.443137	-100
